# 361 data with intensity information, current angle: -51.9864
9 0 9 8498
8.99966 0.0785388 9 8508
8.99863 0.157072 9 8508
9.99657 0.261769 10 8498
8.99452 0.314095 9 8488
8.99143 0.392574 9 8488
9.9863 0.52336 10 8479
8.98321 0.549437 9 8488
9.97564 0.697565 10 8479
8.97226 0.706132 9 8459
9.96195 0.871557 10 8459
9.95396 0.958458 10 8450
9.94522 1.04528 10 8450
9.93572 1.13203 10 8431
9.92546 1.21869 10 8431
8.923 1.17474 9 8421
8.91241 1.25256 9 8411
8.90114 1.33028 9 8392
9.87688 1.56434 10 8383
9.86286 1.65048 10 8374
8.86327 1.56283 9 8364
8.84929 1.64012 9 8336
18.6509 3.62537 19 8603
22.5383 4.58546 23 9206
24.4537 5.19779 25 9364
26.36 5.84387 27 9412
29.2311 6.74853 30 9547
34.0329 8.17059 35 9741
37.8415 9.43495 39 9920
42.5985 11.0167 44 10032
48.2963 12.941 50 10178
53.9633 14.9653 56 10215
52.8694 15.1601 55 9135
9.5882 2.84015 10 7420
7.65044 2.33897 8 7345
9.53717 3.00706 10 7244
6.6574 2.16312 7 7235
776.677 259.873 819 32767
109.68 37.7659 116 8317
772.023 273.388 819 32767
105.246 38.3063 112 8364
102.097 38.1726 109 8392
98.9595 37.987 106 8402
96.7634 38.1161 104 8411
95.4999 38.5845 103 8431
92.388 38.2683 100 8459
90.2095 38.2917 98 8479
88.9548 38.6787 97 8488
86.7868 38.64 95 8508
84.6264 38.5665 93 8508
84.2866 39.3035 93 8517
82.1353 39.1765 91 8517
79.9927 39.015 89 8517
78.7542 39.2654 88 8527
77.5176 39.4972 87 8517
74.5089 38.7869 84 8517
74.1676 39.4356 84 8517
73.8206 40.0813 84 8517
70.8442 39.2696 81 8517
69.6285 39.3939 80 8527
67.55 39 78 8517
66.3454 39.0805 77 8517
65.1447 39.1429 76 8517
63.0954 38.6649 74 8508
62.7556 39.214 74 8527
60.7242 38.6856 72 8517
59.5456 38.6694 71 8488
58.372 38.6356 70 8498
57.2036 38.5843 69 8498
56.0406 38.5156 68 8498
55.7023 39.0032 68 8498
53.7316 38.3264 66 8498
52.5861 38.206 65 8498
52.2507 38.6635 65 8498
51.1127 38.5162 64 8508
49.9813 38.352 63 8508
48.8567 38.171 62 8508
48.5217 38.5959 62 8508
47.4059 38.3885 61 8517
46.2975 38.1647 60 8508
45.1966 37.9245 59 8517
44.1035 37.668 58 8508
43.7732 38.0514 58 8508
43.4394 38.432 58 8517
42.3593 38.1404 57 8508
41.2875 37.8331 56 8508
40.9558 38.1919 56 8508
40.621 38.5479 56 8498
39.5637 38.2062 55 8488
39.2288 38.55 55 8498
38.1838 38.1838 54 8498
37.1482 37.8023 53 8498
36.8169 38.125 53 8498
36.4828 38.4448 53 8508
35.4639 38.0304 52 8498
35.1307 38.3384 52 8508
34.1257 37.9004 51 8508
33.131 37.4478 50 8517
32.803 37.7355 50 8508
32.4724 38.0203 50 8498
32.1394 38.3022 50 8508
31.1678 37.8096 49 8517
30.8367 38.0802 49 8508
30.5032 38.3478 49 8508
29.5518 37.8245 48 8517
29.8293 38.8743 49 8508
28.8871 38.3345 48 8508
28.5515 38.5851 48 8508
27.6259 38.0238 47 8508
27.293 38.2634 47 8508
26.9581 38.5001 47 8498
26.0547 37.9098 46 8498
26.2821 38.9648 47 8498
25.3891 38.3587 46 8488
25.0534 38.5788 46 8488
24.1785 37.9526 45 8479
23.8464 38.1622 45 8479
24.0349 39.2214 46 8488
23.1767 38.5725 45 8479
22.8392 38.7733 45 8479
22.5 38.9711 45 8469
21.6666 38.2957 44 8479
21.3316 38.4833 44 8479
20.995 38.668 44 8498
20.6567 38.8497 44 8488
20.3169 39.0285 44 8488
19.5216 38.3133 43 8498
19.1865 38.4822 43 8498
18.85 38.6481 43 8508
18.512 38.8112 43 8488
18.1726 38.9712 43 8488
17.8318 39.1283 43 8488
17.4897 39.2825 43 8508
16.7475 38.5165 42 8508
16.4107 38.6612 42 8508
16.4554 39.7268 43 8508
15.3589 38.0145 41 8479
15.3931 39.0775 42 8469
14.6931 38.2768 41 8469
14.3585 38.4036 41 8459
14.0228 38.5274 41 8469
13.6861 38.6483 41 8469
13.0227 37.8207 40 8479
13.0095 38.8813 41 8488
12.3607 38.0423 40 8488
11.7275 37.195 39 8498
11.6949 38.2522 40 8479
11.3606 38.3528 40 8488
11.0255 38.4505 40 8488
10.4223 37.5816 39 8479
10.3528 38.637 40 8498
10.0152 38.7259 40 8479
9.67688 38.8118 40 8488
9.10437 37.9224 39 8498
8.77309 38.0004 39 8498
8.22471 37.0992 38 8498
8.10856 38.1478 39 8488
7.77535 38.2171 39 8469
7.44155 38.2835 39 8469
7.10719 38.3469 39 8469
6.94593 39.3923 40 8479
6.43686 38.4651 39 8469
6.10094 38.5198 39 8459
5.76457 38.5716 39 8459
5.42775 38.6205 39 8469
4.96 37.6749 38 8469
4.7529 38.7093 39 8469
4.41493 38.7493 39 8459
3.97208 37.7918 38 8450
3.64214 37.8251 38 8450
3.39907 38.8516 39 8459
2.98145 37.8829 38 8469
2.7205 38.905 39 8479
2.31984 37.9291 38 8498
1.98877 37.9479 38 8488
1.65754 37.9638 38 8488
1.36108 38.9762 39 8479
0.994724 37.987 38 8469
0.680644 38.9941 39 8459
0.331608 37.9986 38 8459
2.32675e-15 38 38 8459
-0.340335 38.9985 39 8459
-0.663191 37.9942 38 8469
-0.994724 37.987 38 8459
-1.32618 37.9769 38 8459
-1.65754 37.9638 38 8450
-1.98877 37.9479 38 8440
-2.38089 38.9273 39 8469
-2.7205 38.905 39 8459
-3.0599 38.8798 39 8459
-3.39907 38.8516 39 8459
-3.73798 38.8205 39 8459
-4.07661 38.7864 39 8459
-4.41493 38.7493 39 8459
-4.7529 38.7093 39 8459
-4.96 37.6749 38 8469
-5.42775 38.6205 39 8459
-5.61676 37.5826 38 8469
-6.10094 38.5198 39 8479
-6.43686 38.4651 39 8479
-6.59863 37.4227 38 8469
-7.10719 38.3469 39 8469
-7.25074 37.3018 38 8469
-7.77535 38.2171 39 8469
-8.10856 38.1478 39 8459
-8.44114 38.0755 39 8459
-8.77309 38.0004 39 8479
-9.33781 38.8948 40 8459
-9.67688 38.8118 40 8479
-10.0152 38.7259 40 8459
-10.0939 37.6711 39 8469
-10.6895 38.5452 40 8479
-11.0255 38.4505 40 8488
-11.3606 38.3528 40 8469
-11.6949 38.2522 40 8469
-12.0282 38.1487 40 8469
-12.3607 38.0423 40 8479
-13.0095 38.8813 41 8469
-13.3483 38.7663 41 8459
-13.6861 38.6483 41 8479
-14.0228 38.5274 41 8479
-14.3585 38.4036 41 8479
-15.0515 39.2104 42 8469
-15.3931 39.0775 42 8479
-15.7335 38.9417 42 8488
-16.0727 38.8029 42 8488
-16.8014 39.5817 43 8488
-16.7475 38.5165 42 8479
-17.0829 38.3689 42 8479
-17.8318 39.1283 43 8479
-18.1726 38.9712 43 8469
-18.512 38.8112 43 8479
-18.85 38.6481 43 8479
-19.6327 39.3771 44 8488
-20.4296 40.0953 45 8488
-20.3169 39.0285 44 8488
-20.6567 38.8497 44 8498
-21.4721 39.5468 45 8508
-21.8164 39.3579 45 8508
-22.1591 39.166 45 8508
-22.5 38.9711 45 8508
-22.8392 38.7733 45 8508
-23.1767 38.5725 45 8508
-23.5124 38.3688 45 8508
-24.3763 39.0102 46 8498
-24.7158 38.796 46 8498
-25.598 39.4175 47 8498
-25.3891 38.3587 46 8508
-26.2821 38.9648 47 8517
-26.6211 38.7339 47 8517
-27.5317 39.3193 48 8517
-27.8737 39.0775 48 8517
-28.2137 38.8328 48 8508
-28.5515 38.5851 48 8508
-29.4889 39.1331 49 8508
-29.8293 38.8743 49 8508
-30.1674 38.6125 49 8508
-30.5032 38.3478 49 8517
-31.466 38.8573 50 8517
-31.8039 38.5812 50 8517
-32.1394 38.3022 50 8517
-33.1219 38.7807 51 8517
-33.459 38.4902 51 8508
-33.7936 38.1967 51 8498
-34.7948 38.6435 52 8498
-35.8063 39.0757 53 8508
-35.4639 38.0304 52 8517
-36.4828 38.4448 53 8517
-37.5116 38.8443 54 8517
-37.8491 38.5155 54 8517
-39.598 39.598 56 8508
-39.2288 38.55 55 8498
-40.283 38.9009 56 8508
-40.621 38.5479 56 8508
-41.6872 38.8739 57 8508
-42.7621 39.1842 58 8517
-43.1024 38.8096 58 8508
-43.4394 38.432 58 8508
-44.5279 38.7075 59 8508
-45.6244 38.9669 60 8508
-46.7287 39.21 61 8508
-47.8407 39.4368 62 8527
-48.9602 39.6472 63 8508
-49.3043 39.2184 63 8508
-50.4327 39.4023 64 8508
-51.568 39.5695 65 8508
-51.9113 39.118 65 8508
-53.0546 39.2583 66 8527
-54.2041 39.3816 67 8508
-55.3599 39.4878 68 8508
-57.3406 40.1504 70 8508
-57.6888 39.6484 70 8508
-58.0326 39.1435 70 8508
-60.0398 39.7395 72 8527
-61.223 39.7586 73 8517
-62.411 39.7602 74 8517
-63.6036 39.7439 75 8527
-64.8007 39.7099 76 8517
-66.859 40.173 78 8527
-68.0687 40.0955 79 8517
-69.282 40 80 8508
-72.2395 40.8712 83 8517
-73.4681 40.724 84 8517
-75.5783 41.0357 86 8508
-75.9335 40.3746 86 8508
-78.944 41.0956 89 8508
-81.0816 41.3131 91 8517
-82.334 41.0502 92 8508
-84.4866 41.2069 94 8517
-86.6482 41.3291 96 8517
-87.9119 40.994 97 8508
-90.9961 41.4693 100 8488
-92.2681 41.0804 101 8488
-95.3742 41.4699 104 8488
-97.5735 41.4175 106 8459
-100.703 41.7125 109 8459
-102.917 41.5813 111 8450
-104.207 41.0481 112 8402
-107.362 41.2123 115 8336
-108.654 40.6241 116 8280
-111.823 40.7004 119 8280
-115.002 40.7244 122 8280
-120.081 41.3472 127 8374
-121.385 40.615 128 8402
-121.735 39.5542 128 8440
-123.029 38.791 129 8280
-122.407 37.4236 128 8280
-8.62938 2.55614 9 7345
-8.65136 2.48074 9 7622
-40.4725 11.224 42 9243
-37.6711 10.0939 39 9508
-35.8215 9.26406 37 9813
-32.0198 7.98342 33 9585
-29.1711 7.00336 30 9547
-28.2567 6.52358 29 9480
-25.3837 5.62743 26 9327
-23.4755 4.98988 24 9041
-8.81932 1.79431 9 8299
-9.81627 1.90809 10 8308
-21.6316 4.00918 22 9098
-23.6354 4.16756 24 9179
-22.6846 3.79609 23 9117
-22.7168 3.59799 23 9126
-21.7583 3.25181 22 9079
-21.7859 3.06181 22 9126
-19.8289 2.61052 20 8930
-19.8509 2.43739 20 8930
-17.8843 2.03766 18 8832
-12.9288 1.35887 13 8479
-10.9494 1.0543 11 8431
-9.96195 0.871557 10 8421
-8.97226 0.706132 9 8421
-8.97808 0.627808 9 8421
-9.98135 0.610485 10 8440
-9.9863 0.52336 10 8440
-10.9895 0.479813 11 8450
-10.9933 0.383894 11 8450
-8.99692 0.235593 9 8440
-9.99848 0.174524 10 8459
-9.99962 0.0872654 10 8459
-10 1.22461e-15 10 8459
